# Results of near edge peak fit to "AII_45"
# Titles from AII_45
# .  Merge in e space of:
# .  ** T:/xas_user/June2011/Gaetani/DT_Corrected/Fe_xanes_AII_45.001c
# .  ** T:/xas_user/June2011/Gaetani/DT_Corrected/Fe_xanes_AII_45.002c
# .  ** T:/xas_user/June2011/Gaetani/DT_Corrected/Fe_xanes_AII_45.003c
# .
# Fitting range = [-10:2] (relative to centroid of step function)
# .
# Fit included 60 data points and 3 variables
# R-factor = 0.00122, chi-square = 0.00193, reduced chi-square = 0.0000332
# .
# function       centroid             amplitude        width
# ============================================================
# atan            7117.50(    1.12)  0.507( 0.071)  1.164( 0.038)
# gauss           7111.40(    0.00)  0.057( 0.000)  0.882( 0.000)
# gauss           7113.20(    0.00)  0.177( 0.000)  0.898( 0.000)
# .
# .
# The Gaussians and Lorentzians are unit normalized,
# so the amplitudes are the areas.
# Formulas:
# -  arctangent:       A*[atan((e-E0)/W)/pi + 0.5]
# -  error function:   A*[erf((e-E0)/W) + 1]
# -  Gaussian:         [A/(W*sqrt(2pi))] * exp[-(e-E0)^2/(2W^2)]
# -  Lorentzian:       (AW/2pi) / [(e-E0)^2 + (W/2)^2]
#------------------------
#   ee        norm       fun          step          peak1          peak2          resid
  7012.0000       0.10002422E-02   0.17708641E-02   0.17708641E-02    0.0000000        0.0000000      -0.77062182E-03
  7017.0000       0.77408462E-03   0.18585393E-02   0.18585393E-02    0.0000000        0.0000000      -0.10844546E-02
  7022.0000       0.45364537E-03   0.19553478E-02   0.19553478E-02    0.0000000        0.0000000      -0.15017024E-02
  7027.0000       0.38419294E-03   0.20627952E-02   0.20627952E-02    0.0000000        0.0000000      -0.16786022E-02
  7032.0000       0.11000049E-03   0.21827370E-02   0.21827370E-02    0.0000000        0.0000000      -0.20727365E-02
  7037.0000       0.87036085E-04   0.23174870E-02   0.23174870E-02    0.0000000        0.0000000      -0.22304509E-02
  7042.0000      -0.85472205E-04   0.24699676E-02   0.24699676E-02    0.0000000        0.0000000      -0.25554398E-02
  7047.0000      -0.18574711E-03   0.26439247E-02   0.26439247E-02    0.0000000        0.0000000      -0.28296718E-02
  7052.0000      -0.46451661E-03   0.28442388E-02   0.28442388E-02    0.0000000        0.0000000      -0.33087554E-02
  7057.0000      -0.44228293E-03   0.30773902E-02   0.30773902E-02    0.0000000        0.0000000      -0.35196731E-02
  7062.0000      -0.49066909E-03   0.33521731E-02   0.33521731E-02    0.0000000        0.0000000      -0.38428421E-02
  7067.0000      -0.33192548E-03   0.36808290E-02   0.36808290E-02    0.0000000        0.0000000      -0.40127545E-02
  7072.0000      -0.35734929E-03   0.40809194E-02   0.40809194E-02    0.0000000        0.0000000      -0.44382687E-02
  7077.0000       0.35208119E-04   0.45785668E-02   0.45785668E-02    0.0000000        0.0000000      -0.45433587E-02
  7082.0000       0.35514831E-03   0.52143931E-02   0.52143931E-02   0.13696329E-99   0.58771444E-99  -0.48592448E-02
  7087.0000       0.93273140E-03   0.60551963E-02   0.60551963E-02   0.16765326E-99   0.11274291E-99  -0.51224649E-02
  7092.0000       0.20484385E-02   0.72190648E-02   0.72190648E-02   0.22666174E-99   0.74317022E-99  -0.51706263E-02
  7097.0000       0.34462232E-02   0.89362405E-02   0.89362405E-02   0.33845648E-59   0.16833076E-71  -0.54900172E-02
  7102.0000       0.62673079E-02   0.11723412E-01   0.11723412E-01   0.55819489E-26   0.13101314E-34  -0.54561037E-02
  7102.2000       0.64930935E-02   0.11871452E-01   0.11871452E-01   0.60978238E-25   0.20554707E-33  -0.53783588E-02
  7102.4000       0.65597415E-02   0.12023273E-01   0.12023273E-01   0.63275114E-24   0.30687778E-32  -0.54635311E-02
  7102.6000       0.68237958E-02   0.12179019E-01   0.12179019E-01   0.62367748E-23   0.43599080E-31  -0.53552231E-02
  7102.8000       0.69524632E-02   0.12338845E-01   0.12338845E-01   0.58392388E-22   0.58944994E-30  -0.53863820E-02
  7103.0000       0.71267565E-02   0.12502913E-01   0.12502913E-01   0.51930376E-21   0.75835796E-29  -0.53761569E-02
  7103.2000       0.73452890E-02   0.12671395E-01   0.12671395E-01   0.43868799E-20   0.92845166E-28  -0.53261058E-02
  7103.4000       0.78589766E-02   0.12844469E-01   0.12844469E-01   0.35201331E-19   0.10816881E-26  -0.49854924E-02
  7103.6000       0.78285834E-02   0.13022326E-01   0.13022326E-01   0.26830667E-18   0.11992302E-25  -0.51937427E-02
  7103.8000       0.79839658E-02   0.13205167E-01   0.13205167E-01   0.19425532E-17   0.12652046E-24  -0.52212010E-02
  7104.0000       0.82355530E-02   0.13393203E-01   0.13393203E-01   0.13359291E-16   0.12702134E-23  -0.51576501E-02
  7104.2000       0.82538393E-02   0.13586659E-01   0.13586659E-01   0.87269595E-16   0.12135296E-22  -0.53328197E-02
  7104.4000       0.84599104E-02   0.13785772E-01   0.13785772E-01   0.54151634E-15   0.11032698E-21  -0.53258612E-02
  7104.6000       0.86581918E-02   0.13990792E-01   0.13990792E-01   0.31917526E-14   0.95448880E-21  -0.53326004E-02
  7104.8000       0.90661317E-02   0.14201987E-01   0.14201987E-01   0.17869645E-13   0.78581020E-20  -0.51358552E-02
  7105.0000       0.92146157E-02   0.14419638E-01   0.14419638E-01   0.95032399E-13   0.61563344E-19  -0.52050224E-02
  7105.2000       0.95274879E-02   0.14644046E-01   0.14644046E-01   0.48006110E-12   0.45897018E-18  -0.51165578E-02
  7105.4000       0.97757195E-02   0.14875528E-01   0.14875528E-01   0.23035115E-11   0.32561504E-17  -0.50998090E-02
  7105.6000       0.10117426E-01   0.15114425E-01   0.15114425E-01   0.10499130E-10   0.21982757E-16  -0.49969991E-02
  7105.8000       0.10414606E-01   0.15361097E-01   0.15361097E-01   0.45455379E-10   0.14122696E-15  -0.49464908E-02
  7106.0000       0.10637558E-01   0.15615928E-01   0.15615928E-01   0.18693315E-09   0.86339742E-15  -0.49783699E-02
  7106.2000       0.11040080E-01   0.15879329E-01   0.15879328E-01   0.73022450E-09   0.50229820E-14  -0.48392488E-02
  7106.4000       0.11321427E-01   0.16151740E-01   0.16151737E-01   0.27095398E-08   0.27808030E-13  -0.48303126E-02
  7106.6000       0.11608802E-01   0.16433632E-01   0.16433622E-01   0.95500078E-08   0.14649963E-12  -0.48248302E-02
  7106.8000       0.12055144E-01   0.16725517E-01   0.16725486E-01   0.31972822E-07   0.73444720E-12  -0.46703735E-02
  7107.0000       0.12450677E-01   0.17027966E-01   0.17027864E-01   0.10167806E-06   0.35038245E-11  -0.45772884E-02
  7107.2000       0.13053718E-01   0.17341641E-01   0.17341334E-01   0.30714441E-06   0.15906764E-10  -0.42879235E-02
  7107.4000       0.13331980E-01   0.17667397E-01   0.17666515E-01   0.88130660E-06   0.68719348E-10  -0.43354163E-02
  7107.6000       0.14017171E-01   0.18006475E-01   0.18004073E-01   0.24020414E-05   0.28251009E-09  -0.39893045E-02
  7107.8000       0.14323908E-01   0.18360945E-01   0.18354725E-01   0.62187485E-05   0.11052146E-08  -0.40370371E-02
  7108.0000       0.14984386E-01   0.18734541E-01   0.18719244E-01   0.15293066E-04   0.41144992E-08  -0.37501558E-02
  7108.2000       0.15438127E-01   0.19134204E-01   0.19098466E-01   0.35723597E-04   0.14576225E-07  -0.36960779E-02
  7108.4000       0.16102844E-01   0.19572609E-01   0.19493294E-01   0.79265618E-04   0.49139517E-07  -0.34697651E-02
  7108.6000       0.16904165E-01   0.20071929E-01   0.19904707E-01   0.16706427E-03   0.15764290E-06  -0.31677642E-02
  7108.8000       0.18178590E-01   0.20668713E-01   0.20333767E-01   0.33446552E-03   0.48125547E-06  -0.24901229E-02
  7109.0000       0.18793215E-01   0.21419069E-01   0.20781626E-01   0.63604550E-03   0.13980885E-05  -0.26258546E-02
  7109.2000       0.19757019E-01   0.22402337E-01   0.21249541E-01   0.11489313E-02   0.38650166E-05  -0.26453183E-02
  7109.4000       0.21219215E-01   0.23720424E-01   0.21738882E-01   0.19713739E-02   0.10167772E-04  -0.25012087E-02
  7109.6000       0.22884589E-01   0.25489616E-01   0.22251145E-01   0.32130168E-02   0.25454111E-04  -0.26050266E-02
  7109.8000       0.24672949E-01   0.27822839E-01   0.22787968E-01   0.49742321E-02   0.60638410E-04  -0.31498895E-02
  7110.0000       0.27240190E-01   0.30803510E-01   0.23351148E-01   0.73148958E-02   0.13746603E-03  -0.35633203E-02
  7110.2000       0.30986334E-01   0.34457057E-01   0.23942661E-01   0.10217845E-01   0.29655189E-03  -0.34707236E-02
  7110.4000       0.34350151E-01   0.38730962E-01   0.24564681E-01   0.13557497E-01   0.60878471E-03  -0.43808112E-02
  7110.6000       0.39652054E-01   0.43496009E-01   0.25219612E-01   0.17087116E-01   0.11892810E-02  -0.38439554E-02
  7110.8000       0.45323818E-01   0.48577283E-01   0.25910114E-01   0.20456300E-01   0.22108688E-02  -0.32534651E-02
  7111.0000       0.51167034E-01   0.53812636E-01   0.26639137E-01   0.23262396E-01   0.39111022E-02  -0.26456018E-02
  7111.2000       0.57193964E-01   0.59121607E-01   0.27409966E-01   0.25127591E-01   0.65840495E-02  -0.19276425E-02
  7111.4000       0.61737536E-01   0.64555631E-01   0.28226263E-01   0.25781984E-01   0.10547383E-01  -0.28180946E-02
  7111.6000       0.66173846E-01   0.70298537E-01   0.29092128E-01   0.25127591E-01   0.16078817E-01  -0.41246912E-02
  7111.8000       0.71579868E-01   0.76599534E-01   0.30012164E-01   0.23262396E-01   0.23324975E-01  -0.50196658E-02
  7112.0000       0.76362994E-01   0.83647117E-01   0.30991550E-01   0.20456300E-01   0.32199267E-01  -0.72841234E-02
  7112.2000       0.82414773E-01   0.91422104E-01   0.32036143E-01   0.17087116E-01   0.42298846E-01  -0.90073315E-02
  7112.4000       0.91194727E-01   0.99587316E-01   0.33152580E-01   0.13557497E-01   0.52877239E-01  -0.83925890E-02
  7112.6000       0.10020753       0.10746860       0.34348420E-01   0.10217845E-01   0.62902332E-01  -0.72610621E-02
  7112.8000       0.10884454       0.11415415       0.35632299E-01   0.73148958E-02   0.71206959E-01  -0.53096085E-02
  7113.0000       0.11559594       0.11869551       0.37014127E-01   0.49742321E-02   0.76707152E-01  -0.30995726E-02
  7113.2000       0.11872592       0.12035174       0.38505330E-01   0.32130168E-02   0.78633389E-01  -0.16258152E-02
  7113.4000       0.11676102       0.11879767       0.40119142E-01   0.19713739E-02   0.76707152E-01  -0.20366500E-02
  7113.6000       0.11076101       0.11422685       0.41870964E-01   0.11489313E-02   0.71206959E-01  -0.34658414E-02
  7113.8000       0.10106310       0.10731720       0.43778819E-01   0.63604550E-03   0.62902332E-01  -0.62540957E-02
  7114.0000       0.91973844E-01   0.99075617E-01   0.45863913E-01   0.33446552E-03   0.52877239E-01  -0.71017735E-02
  7114.2000       0.81941896E-01   0.90617250E-01   0.48151340E-01   0.16706427E-03   0.42298846E-01  -0.86753542E-02
  7114.4000       0.76130689E-01   0.82949515E-01   0.50670982E-01   0.79265618E-04   0.32199267E-01  -0.68188260E-02
  7114.6000       0.72349001E-01   0.76819350E-01   0.53458651E-01   0.35723597E-04   0.23324975E-01  -0.44703482E-02
  7114.8000       0.69863913E-01   0.72651660E-01   0.56557550E-01   0.15293066E-04   0.16078817E-01  -0.27877475E-02
  7115.0000       0.69503876E-01   0.70573758E-01   0.60020156E-01   0.62187485E-05   0.10547383E-01  -0.10698817E-02
  7115.2000       0.70784010E-01   0.70497106E-01   0.63910654E-01   0.24020414E-05   0.65840495E-02   0.28690415E-03
  7115.4000       0.74284971E-01   0.72220072E-01   0.68308089E-01   0.88130660E-06   0.39111022E-02   0.20648987E-02
  7115.6000       0.78747038E-01   0.75521600E-01   0.73310424E-01   0.30714441E-06   0.22108688E-02   0.32254386E-02
  7115.8000       0.83418388E-01   0.80229128E-01   0.79039745E-01   0.10167806E-06   0.11892810E-02   0.31892606E-02
  7116.0000       0.90949896E-01   0.86257596E-01   0.85648779E-01   0.31972822E-07   0.60878471E-03   0.46922997E-02
  7116.2000       0.99570205E-01   0.93625302E-01   0.93328741E-01   0.95500078E-08   0.29655189E-03   0.59449029E-02
  7116.4000       0.10902463       0.10245544       0.10231797       0.27095398E-08   0.13746603E-03   0.65691887E-02
  7116.6000       0.12017833       0.11297021       0.11290957       0.73022450E-09   0.60638410E-04   0.72081222E-02
  7116.8000       0.13365750       0.12547887       0.12545341       0.18693315E-09   0.25454111E-04   0.81786356E-02
  7117.0000       0.14798180       0.14035282       0.14034265       0.45455379E-10   0.10167772E-04   0.76289827E-02
  7117.2000       0.16379158       0.15797045       0.15796658       0.10499130E-10   0.38650166E-05   0.58211367E-02
  7117.4000       0.18538641       0.17860597       0.17860457       0.23035115E-11   0.13980885E-05   0.67804421E-02
  7117.6000       0.20588507       0.20224642       0.20224594       0.48006110E-12   0.48125547E-06   0.36386535E-02
  7117.8000       0.22832152       0.22837773       0.22837757       0.95032399E-13   0.15764290E-06  -0.56207042E-04
  7118.0000       0.25298009       0.25588512       0.25588507       0.17869645E-13   0.49139517E-07  -0.29050301E-02
  7118.2000       0.27537847       0.28324395       0.28324393       0.31917526E-14   0.14576225E-07  -0.78654811E-02
  7118.4000       0.29816962       0.30897674       0.30897674       0.54151634E-15   0.41144992E-08  -0.10807119E-01
  7118.6000       0.32351482       0.33207737       0.33207737       0.87269595E-16   0.11052146E-08  -0.85625542E-02
  7118.8000       0.34436308       0.35214043       0.35214043       0.13359291E-16   0.28251009E-09  -0.77773458E-02
  7119.0000       0.36456360       0.36922601       0.36922601       0.19425532E-17   0.68719348E-10  -0.46624136E-02
  7119.2000       0.38430109       0.38364559       0.38364559       0.26830667E-18   0.15906764E-10   0.65549950E-03
  7119.4000       0.40437132       0.39579512       0.39579512       0.35201331E-19   0.35038245E-11   0.85761987E-02
  7119.6000       0.42353262       0.40606190       0.40606190       0.43868799E-20   0.73444720E-12   0.17470717E-01
  7119.8000       0.44204786       0.41478555       0.41478555       0.51930376E-21   0.14649963E-12   0.27262312E-01
  7120.0000       0.46208031       0.42224851       0.42224851       0.58392388E-22   0.27808030E-13   0.39831799E-01
  7120.2000       0.48011113       0.42867965       0.42867965       0.62367748E-23   0.50229820E-14   0.51431487E-01
  7120.4000       0.49724715       0.43426233       0.43426233       0.63275114E-24   0.86339742E-15   0.62984826E-01
  7120.6000       0.51698384       0.43914298       0.43914298       0.60978238E-25   0.14122696E-15   0.77840858E-01
  7120.8000       0.53678392       0.44343873       0.44343873       0.55819489E-26   0.21982757E-16   0.93345184E-01
  7121.0000       0.55678491       0.44724364       0.44724364       0.48536214E-27   0.32561504E-17   0.10954127
  7121.2000       0.57728819       0.45063369       0.45063369       0.40088055E-28   0.45897018E-18   0.12665449
  7121.4000       0.59750112       0.45367066       0.45367066       0.31450904E-29   0.61563344E-19   0.14383046
  7121.6000       0.61716076       0.45640514       0.45640514       0.23437988E-30   0.78581020E-20   0.16075562
  7121.8000       0.63768845       0.45887879       0.45887879       0.16591153E-31   0.95448880E-21   0.17880966
  7122.0000       0.66135441       0.46112624       0.46112624       0.11155830E-32   0.11032698E-21   0.20022817
  7122.2000       0.68122371       0.46317639       0.46317639       0.71251866E-34   0.12135296E-22   0.21804732
  7122.4000       0.70017982       0.46505353       0.46505353       0.43227454E-35   0.12702134E-23   0.23512629
  7122.6000       0.72538723       0.46677824       0.46677824       0.24911055E-36   0.12652046E-24   0.25860898
  7122.8000       0.74435767       0.46836801       0.46836801       0.13636209E-37   0.11992302E-25   0.27598966
  7123.0000       0.76465552       0.46983780       0.46983780       0.70902935E-39   0.10816881E-26   0.29481772
  7123.2000       0.78530694       0.47120048       0.47120048       0.35019008E-40   0.92845166E-28   0.31410646
  7123.4000       0.80629531       0.47246717       0.47246717       0.16429053E-41   0.75835796E-29   0.33382814
  7123.6000       0.82597711       0.47364753       0.47364753       0.73213345E-43   0.58944994E-30   0.35232959
  7123.8000       0.84616749       0.47474997       0.47474997       0.30991103E-44   0.43599080E-31   0.37141752
  7124.0000       0.86441436       0.47578188       0.47578188       0.12460999E-45   0.30687778E-32   0.38863247
  7124.2000       0.88200315       0.47674974       0.47674974       0.47592418E-47   0.20554707E-33   0.40525341
  7124.4000       0.90003029       0.47765926       0.47765926       0.17265999E-48   0.13101314E-34   0.42237103
  7124.6000       0.91459405       0.47851552       0.47851552       0.59499692E-50   0.79465044E-36   0.43607853
  7124.8000       0.93089213       0.47932301       0.47932301       0.19476314E-51   0.45866451E-37   0.45156913
  7125.0000       0.94649105       0.48008575       0.48008575       0.60557491E-53   0.25192534E-38   0.46640530
  7125.2000       0.96229641       0.48080732       0.48080732       0.17885374E-54   0.13167590E-39   0.48148909
  7125.4000       0.97672888       0.48149095       0.48149095       0.50176140E-56   0.65493542E-41   0.49523792
  7125.6000       0.98877187       0.48213953       0.48213953       0.13371050E-57   0.30999049E-42   0.50663234
  7125.8000        1.0015697       0.48275567       0.48275567       0.33845648E-59   0.13962269E-43   0.51881406
  7126.0000        1.0143853       0.48334172       0.48334172       0.81378412E-61   0.59844098E-45   0.53104355
  7126.2000        1.0262268       0.48389982       0.48389982       0.18585945E-62   0.24408685E-46   0.54232699
  7126.4000        1.0363288       0.48443191       0.48443191       0.40320798E-64   0.94738208E-48   0.55189684
  7126.6000        1.0491232       0.48493977       0.48493977       0.83088832E-66   0.34991589E-49   0.56418344
  7126.8000        1.0592348       0.48542499       0.48542499       0.16263920E-67   0.12298719E-50   0.57380983
  7127.0000        1.0670917       0.48588905       0.48588905       0.30239659E-69   0.41135221E-52   0.58120263
  7127.2000        1.0772212       0.48633330       0.48633330       0.53406926E-71   0.13092588E-53   0.59088787
  7127.4000        1.0866319       0.48675897       0.48675897       0.89595733E-73   0.39654721E-55   0.59987289
  7127.6000        1.0952335       0.48716720       0.48716720       0.14277301E-74   0.11429363E-56   0.60806632
  7127.8000        1.1028974       0.48755904       0.48755904       0.21610956E-76   0.31347784E-58   0.61533831
  7128.0000        1.1092180       0.48793544       0.48793544       0.31072120E-78   0.81818101E-99   0.62128251
  7128.2000        1.1151696       0.48829731       0.48829731       0.42436236E-80   0.20321215E-61   0.62687232
  7128.4000        1.1206822       0.48864545       0.48864545       0.55051844E-82   0.48029457E-63   0.63203673
  7128.6000        1.1263972       0.48898064       0.48898064       0.67838453E-84   0.10802478E-64   0.63741652
  7128.8000        1.1339141       0.48930358       0.48930358       0.79405221E-86   0.23120480E-66   0.64461057
  7129.0000        1.1357975       0.48961493       0.48961493       0.88285877E-88   0.47089925E-68   0.64618255
  7129.2000        1.1400335       0.48991530       0.48991530       0.93240043E-90   0.91267654E-70   0.65011824
  7129.4000        1.1414305       0.49020525       0.49020525       0.93536851E-92   0.16833076E-71   0.65122523
  7129.6000        1.1423149       0.49048533       0.49048533       0.89131678E-94   0.29543900E-73   0.65182958
  7129.8000        1.1476886       0.49075601       0.49075601       0.80677136E-96   0.49343492E-75   0.65693260
  7130.0000        1.1486229       0.49101778       0.49101778       0.69364604E-98   0.78424120E-77   0.65760516
  7130.2000        1.1487000       0.49127105       0.49127105       0.56649282E-99   0.11861160E-78   0.65742894
  7130.4000        1.1498609       0.49151624       0.49151624       0.43946061E-99   0.17071134E-80   0.65834470
  7130.6000        1.1507052       0.49175372       0.49175372       0.32382812E-99   0.23380581E-82   0.65895148
  7130.8000        1.1492565       0.49198386       0.49198386       0.22666174E-99   0.30472351E-84   0.65727269
  7131.0000        1.1487450       0.49220698       0.49220698       0.15069919E-99   0.37793259E-86   0.65653807
  7131.2000        1.1486775       0.49242340       0.49242340       0.95172766E-99   0.44604683E-88   0.65625405
  7131.4000        1.1491279       0.49263342       0.49263342       0.57093085E-99   0.50096142E-90   0.65649447
  7131.6000        1.1497640       0.49283731       0.49283731       0.32532945E-99   0.53540920E-92   0.65692665
  7131.8000        1.1470264       0.49303535       0.49303535       0.17608903E-99   0.54453412E-94   0.65399108
  7132.0000        1.1500711       0.49322777       0.49322777       0.90533702E-99   0.52701393E-96   0.65684332
  7132.2000        1.1445548       0.49341482       0.49341482       0.44213746E-99   0.48537433E-98   0.65113994
  7132.4000        1.1442087       0.49359671       0.49359671       0.20510365E-99   0.42539192E-99   0.65061194
  7132.6000        1.1426792       0.49377366       0.49377366       0.90377127E-99   0.35478022E-99   0.64890559
  7132.8000        1.1417900       0.49394586       0.49394586       0.37827943E-99   0.28157058E-99   0.64784414
  7133.0000        1.1427332       0.49411350       0.49411350       0.15039589E-99   0.21265367E-99   0.64861969
  7133.2000        1.1412247       0.49427676       0.49427676       0.56797375E-99   0.15283267E-99   0.64694791
  7133.4000        1.1407977       0.49443581       0.49443581       0.20374625E-99   0.10452430E-99   0.64636184
  7133.6000        1.1390324       0.49459081       0.49459081       0.69425660E-99   0.68026169E-99   0.64444161
  7133.8000        1.1397892       0.49474191       0.49474191       0.22470849E-99   0.42130101E-99   0.64504729
  7134.0000        1.1387290       0.49488926       0.49488926       0.69085672E-99   0.24829428E-99   0.64383975
  7134.2000        1.1395661       0.49503300       0.49503300       0.20175558E-99   0.13925110E-99   0.64453307
  7134.4000        1.1385377       0.49517325       0.49517325       0.55967018E-99   0.74317022E-99   0.64336448
  7134.6000        1.1370839       0.49531014       0.49531014       0.14747141E-99   0.37742936E-99   0.64177373
  7134.8000        1.1372514       0.49544379       0.49544379       0.36910724E-99   0.18240670E-99   0.64180759
  7135.0000        1.1369974       0.49557431       0.49557431       0.87753884E-99   0.83888725E-99   0.64142312
  7135.2000        1.1356158       0.49570182       0.49570182       0.19817514E-99   0.36713360E-99   0.63991394
  7135.4000        1.1372748       0.49582641       0.49582641       0.42510975E-99   0.15289821E-99   0.64144835
  7135.6000        1.1345201       0.49594819       0.49594819       0.86620763E-99   0.60595223E-99   0.63857187
  7135.8000        1.1337723       0.49606724       0.49606724       0.16765326E-99   0.22852414E-99   0.63770511
  7136.0000        1.1327702       0.49618366       0.49618366       0.30822726E-99   0.82013155E-99   0.63658651
  7136.2000        1.1321366       0.49629754       0.49629754       0.53826872E-99   0.28008682E-99   0.63583910
  7136.4000        1.1292951       0.49640895       0.49640895       0.89288657E-99   0.91024761E-99   0.63288618
  7136.6000        1.1269110       0.49651798       0.49651798       0.14068976E-99   0.28150372E-99   0.63039299
  7136.8000        1.1261201       0.49662470       0.49662470       0.21057061E-99   0.82845029E-99   0.62949538
  7137.0000        1.1244819       0.49672918       0.49672918       0.29936572E-99   0.23200989E-99   0.62775269
  7137.2000        1.1212342       0.49683150       0.49683150       0.40427365E-99   0.61830713E-99   0.62440274
  7137.4000        1.1207796       0.49693172       0.49693172       0.51858250E-99   0.15680494E-99   0.62384784
  7137.6000        1.1199582       0.49702990       0.49702990       0.63187232E-99   0.37841901E-99   0.62292828
  7137.8000        1.1140962       0.49712610       0.49712610       0.73132405E-99   0.86904820E-99   0.61697005
  7138.0000        1.1129807       0.49722040       0.49722040       0.80400627E-99   0.18992079E-99   0.61576034
  7138.2000        1.1107127       0.49731283       0.49731283       0.83961090E-99   0.39496525E-99   0.61339988
  7138.4000        1.1059068       0.49740345       0.49740345       0.83284802E-99   0.78163316E-99   0.60850333
  7138.6000        1.1052936       0.49749233       0.49749233       0.78473405E-99   0.14719898E-99   0.60780124
  7138.8000        1.1041460       0.49757950       0.49757950       0.70234144E-99   0.26379364E-99   0.60656654
  7139.0000        1.1029786       0.49766502       0.49766502       0.59709459E-99   0.44986435E-99   0.60531354
  7139.2000        1.0963315       0.49774893       0.49774893       0.48217761E-99   0.73005664E-99   0.59858258
  7139.4000        1.0965738       0.49783128       0.49783128       0.36986224E-99   0.11274291E-99   0.59874254
  7139.6000        1.0950604       0.49791211       0.49791211       0.26948959E-99   0.16568366E-99   0.59714830
  7139.8000        1.0935749       0.49799146       0.49799146       0.18651470E-99   0.23170095E-99   0.59558349
  7140.0000        1.0925502       0.49806937       0.49806937       0.12261770E-99   0.30834271E-99   0.59448081
  7140.2000        1.0874928       0.49814589       0.49814589       0.76570652E-99   0.39047863E-99   0.58934689
  7140.4000        1.0848015       0.49822104       0.49822104       0.45419313E-99   0.47056388E-99   0.58658043
  7140.6000        1.0829747       0.49829487       0.49829487       0.25591034E-99   0.53963190E-99   0.58467982
  7140.8000        1.0830709       0.49836741       0.49836741       0.13696329E-99   0.58889026E-99   0.58470350
  7141.0000        1.0794332       0.49843869       0.49843869       0.69628902E-99   0.61154560E-99   0.58099448
  7141.2000        1.0776101       0.49850875       0.49850875       0.33623583E-99   0.60433959E-99   0.57910134
  7141.4000        1.0770956       0.49857761       0.49857761       0.15422951E-99   0.56831741E-99   0.57851804
  7141.6000        1.0739976       0.49864531       0.49864531       0.67198567E-99   0.50857921E-99   0.57535233
  7141.8000        1.0701992       0.49871187       0.49871187       0.27811321E-99   0.43309579E-99   0.57148733
  7142.0000        1.0679365       0.49877733       0.49877733       0.10933325E-99   0.35096762E-99   0.56915921
  7143.7330        1.0218888       0.49930204       0.49930204       0.39380654E-99   0.71937106E-99   0.52258676
  7145.5160        1.0201357       0.49977309       0.49977309        0.0000000       0.48047365E-99   0.52036256
  7147.3470       0.99661436       0.50019739       0.50019739        0.0000000       0.81688536E-99   0.49641697
  7149.2260       0.96967626       0.50058119       0.50058119        0.0000000        0.0000000       0.46909507
  7151.1540       0.94561237       0.50092986       0.50092986        0.0000000        0.0000000       0.44468252
  7153.1310       0.92257600       0.50124771       0.50124771        0.0000000        0.0000000       0.42132829
  7155.1570       0.90556160       0.50153841       0.50153841        0.0000000        0.0000000       0.40402320
  7157.2310       0.89571153       0.50180494       0.50180494        0.0000000        0.0000000       0.39390660
  7159.3540       0.89027088       0.50205011       0.50205011        0.0000000        0.0000000       0.38822077
  7161.5250       0.88846529       0.50227612       0.50227612        0.0000000        0.0000000       0.38618917
  7163.7460       0.89309664       0.50248516       0.50248516        0.0000000        0.0000000       0.39061148
  7166.0150       0.90148227       0.50267876       0.50267876        0.0000000        0.0000000       0.39880350
  7168.3330       0.91460006       0.50285854       0.50285854        0.0000000        0.0000000       0.41174152
  7170.6990       0.93291331       0.50302575       0.50302575        0.0000000        0.0000000       0.42988756
  7173.1140       0.94821278       0.50318163       0.50318163        0.0000000        0.0000000       0.44503116
  7175.5780       0.96326253       0.50332720       0.50332720        0.0000000        0.0000000       0.45993533
  7178.0900       0.97110755       0.50346333       0.50346333        0.0000000        0.0000000       0.46764422
  7180.6510       0.97607468       0.50359088       0.50359088        0.0000000        0.0000000       0.47248380
  7183.2610       0.98505508       0.50371058       0.50371058        0.0000000        0.0000000       0.48134450
  7185.9200       0.99358756       0.50382307       0.50382307        0.0000000        0.0000000       0.48976448
  7188.6270       0.99570121       0.50392890       0.50392890        0.0000000        0.0000000       0.49177231
  7191.3830        1.0034830       0.50402862       0.50402862        0.0000000        0.0000000       0.49945442
  7194.1880        1.0033463       0.50412272       0.50412272        0.0000000        0.0000000       0.49922357
  7197.0410        1.0022864       0.50421157       0.50421157        0.0000000        0.0000000       0.49807483
  7199.9420        1.0026748       0.50429558       0.50429558        0.0000000        0.0000000       0.49837918
  7202.8930        1.0005546       0.50437515       0.50437515        0.0000000        0.0000000       0.49617942
  7205.8930       0.99468717       0.50445057       0.50445057        0.0000000        0.0000000       0.49023660
  7208.9400       0.99116314       0.50452207       0.50452207        0.0000000        0.0000000       0.48664107
  7212.0370       0.98507507       0.50459000       0.50459000        0.0000000        0.0000000       0.48048506
  7215.1830       0.98096423       0.50465458       0.50465458        0.0000000        0.0000000       0.47630965
  7218.3760       0.97727741       0.50471598       0.50471598        0.0000000        0.0000000       0.47256142
  7221.6190       0.96989933       0.50477447       0.50477447        0.0000000        0.0000000       0.46512486
  7224.9110       0.97409718       0.50483022       0.50483022        0.0000000        0.0000000       0.46926696
  7228.2510       0.96796873       0.50488338       0.50488338        0.0000000        0.0000000       0.46308535
  7231.6400       0.96957372       0.50493412       0.50493412        0.0000000        0.0000000       0.46463960
  7235.0770       0.96459863       0.50498259       0.50498259        0.0000000        0.0000000       0.45961604
  7238.5630       0.96829396       0.50502892       0.50502892        0.0000000        0.0000000       0.46326503
  7242.0980       0.97090366       0.50507325       0.50507325        0.0000000        0.0000000       0.46583040
  7245.6820       0.97273010       0.50511569       0.50511569        0.0000000        0.0000000       0.46761441
  7249.3130       0.97299498       0.50515632       0.50515632        0.0000000        0.0000000       0.46783866
  7252.9950       0.97370884       0.50519529       0.50519529        0.0000000        0.0000000       0.46851356
  7256.7240       0.98154400       0.50523265       0.50523265        0.0000000        0.0000000       0.47631135
  7260.5020       0.98186805       0.50526851       0.50526851        0.0000000        0.0000000       0.47659954
  7264.3300       0.98747974       0.50530295       0.50530295        0.0000000        0.0000000       0.48217679
  7268.2050       0.99208488       0.50533603       0.50533603        0.0000000        0.0000000       0.48674885
  7272.1290       0.99197655       0.50536783       0.50536783        0.0000000        0.0000000       0.48660872
  7276.1030       0.98851504       0.50539843       0.50539843        0.0000000        0.0000000       0.48311661
  7280.1240       0.99497247       0.50542786       0.50542786        0.0000000        0.0000000       0.48954460
  7284.1940       0.99303440       0.50545621       0.50545621        0.0000000        0.0000000       0.48757819
  7288.3130       0.99483001       0.50548351       0.50548351        0.0000000        0.0000000       0.48934650
  7292.4810       0.99310044       0.50550983       0.50550983        0.0000000        0.0000000       0.48759062
  7296.6980       0.99454257       0.50553521       0.50553521        0.0000000        0.0000000       0.48900736
  7300.9630       0.99365955       0.50555968       0.50555968        0.0000000        0.0000000       0.48809987
  7305.2770       0.99317458       0.50558331       0.50558331        0.0000000        0.0000000       0.48759127
  7309.6390       0.98993342       0.50560611       0.50560611        0.0000000        0.0000000       0.48432731
  7314.0500       0.98847381       0.50562814       0.50562814        0.0000000        0.0000000       0.48284566
  7318.5100       0.98978072       0.50564943       0.50564943        0.0000000        0.0000000       0.48413129
  7323.0190       0.98815229       0.50567002       0.50567002        0.0000000        0.0000000       0.48248227
  7327.5760       0.98893209       0.50568992       0.50568992        0.0000000        0.0000000       0.48324218
  7332.1820       0.98743924       0.50570917       0.50570917        0.0000000        0.0000000       0.48173007
  7336.8360       0.98621632       0.50572780       0.50572780        0.0000000        0.0000000       0.48048852
  7341.5400       0.98906084       0.50574585       0.50574585        0.0000000        0.0000000       0.48331499
  7346.2920       0.98625027       0.50576332       0.50576332        0.0000000        0.0000000       0.48048695
  7351.0920       0.98983648       0.50578025       0.50578025        0.0000000        0.0000000       0.48405623
  7355.9420       0.98841842       0.50579666       0.50579666        0.0000000        0.0000000       0.48262176
  7360.8400       0.98775907       0.50581257       0.50581257        0.0000000        0.0000000       0.48194650
  7365.7870       0.98806256       0.50582799       0.50582799        0.0000000        0.0000000       0.48223457
  7370.7820       0.98543968       0.50584296       0.50584296        0.0000000        0.0000000       0.47959672
  7375.8260       0.98675775       0.50585748       0.50585748        0.0000000        0.0000000       0.48090027
  7380.9190       0.99086491       0.50587158       0.50587158        0.0000000        0.0000000       0.48499333
  7386.0600       0.98838475       0.50588527       0.50588527        0.0000000        0.0000000       0.48249948
  7391.2500       0.99012338       0.50589856       0.50589856        0.0000000        0.0000000       0.48422482
  7396.4890       0.99002611       0.50591148       0.50591148        0.0000000        0.0000000       0.48411463
  7401.7770       0.98893610       0.50592404       0.50592404        0.0000000        0.0000000       0.48301206
  7407.1130       0.99148128       0.50593625       0.50593625        0.0000000        0.0000000       0.48554503
  7412.4980       0.97734597       0.50594811       0.50594811        0.0000000        0.0000000       0.47139785
  7417.9320       0.98986403       0.50595966       0.50595966        0.0000000        0.0000000       0.48390437
  7423.4140       0.98315869       0.50597089       0.50597089        0.0000000        0.0000000       0.47718780
  7428.9450       0.98479474       0.50598182       0.50598182        0.0000000        0.0000000       0.47881292
  7434.5240       0.98967024       0.50599246       0.50599246        0.0000000        0.0000000       0.48367779
  7440.1530       0.99020322       0.50600282       0.50600282        0.0000000        0.0000000       0.48420040
  7445.8300       0.98684871       0.50601290       0.50601290        0.0000000        0.0000000       0.48083580
  7451.5550       0.98435388       0.50602273       0.50602273        0.0000000        0.0000000       0.47833115
  7457.3300       0.97637301       0.50603230       0.50603230        0.0000000        0.0000000       0.47034070
  7463.1530       0.98054707       0.50604163       0.50604163        0.0000000        0.0000000       0.47450543
  7469.0240       0.98125699       0.50605073       0.50605073        0.0000000        0.0000000       0.47520626
  7474.9450       0.98241645       0.50605960       0.50605960        0.0000000        0.0000000       0.47635685
  7480.9140       0.97715297       0.50606824       0.50606824        0.0000000        0.0000000       0.47108473
  7486.9320       0.98590530       0.50607668       0.50607668        0.0000000        0.0000000       0.47982862
  7492.9990       0.97783872       0.50608491       0.50608491        0.0000000        0.0000000       0.47175381
