# Results of near edge peak fit to "AII_45"
# Titles from AII_45
# .  Merge in e space of:
# .  ** T:/xas_user/June2011/Gaetani/DT_Corrected/Fe_xanes_AII_45.001c
# .  ** T:/xas_user/June2011/Gaetani/DT_Corrected/Fe_xanes_AII_45.002c
# .  ** T:/xas_user/June2011/Gaetani/DT_Corrected/Fe_xanes_AII_45.003c
# .
# Fitting range = [-9:1] (relative to centroid of step function)
# .
# Fit included 50 data points and 5 variables
# R-factor = 0.00019, chi-square = 0.00016, reduced chi-square = 0.0000035
# .
# function       centroid             amplitude        width
# ============================================================
# atan            7117.50(    0.61)  0.471( 0.036)  1.258( 0.019)
# gauss           7113.25(    0.00)  0.144( 0.002)  0.750( 0.000)
# gauss           7111.50(    0.00)  0.057( 0.002)  0.750( 0.000)
# .
# .
# The Gaussians and Lorentzians are unit normalized,
# so the amplitudes are the areas.
# Formulas:
# -  arctangent:       A*[atan((e-E0)/W)/pi + 0.5]
# -  error function:   A*[erf((e-E0)/W) + 1]
# -  Gaussian:         [A/(W*sqrt(2pi))] * exp[-(e-E0)^2/(2W^2)]
# -  Lorentzian:       (AW/2pi) / [(e-E0)^2 + (W/2)^2]
#------------------------
#   ee        norm       fun          step          peak1          peak2          resid
  7012.0000       0.10002422E-02   0.17837092E-02   0.17837092E-02    0.0000000        0.0000000      -0.78346697E-03
  7017.0000       0.77408462E-03   0.18721440E-02   0.18721440E-02    0.0000000        0.0000000      -0.10980594E-02
  7022.0000       0.45364537E-03   0.19698048E-02   0.19698048E-02    0.0000000        0.0000000      -0.15161595E-02
  7027.0000       0.38419294E-03   0.20782147E-02   0.20782147E-02    0.0000000        0.0000000      -0.16940218E-02
  7032.0000       0.11000049E-03   0.21992515E-02   0.21992515E-02    0.0000000        0.0000000      -0.20892510E-02
  7037.0000       0.87036085E-04   0.23352576E-02   0.23352576E-02    0.0000000        0.0000000      -0.22482215E-02
  7042.0000      -0.85472205E-04   0.24891926E-02   0.24891926E-02    0.0000000        0.0000000      -0.25746648E-02
  7047.0000      -0.18574711E-03   0.26648516E-02   0.26648516E-02    0.0000000        0.0000000      -0.28505987E-02
  7052.0000      -0.46451661E-03   0.28671817E-02   0.28671817E-02    0.0000000        0.0000000      -0.33316983E-02
  7057.0000      -0.44228293E-03   0.31027556E-02   0.31027556E-02    0.0000000        0.0000000      -0.35450385E-02
  7062.0000      -0.49066909E-03   0.33804981E-02   0.33804981E-02    0.0000000        0.0000000      -0.38711672E-02
  7067.0000      -0.33192548E-03   0.37128422E-02   0.37128422E-02    0.0000000        0.0000000      -0.40447677E-02
  7072.0000      -0.35734929E-03   0.41176399E-02   0.41176399E-02    0.0000000        0.0000000      -0.44749892E-02
  7077.0000       0.35208119E-04   0.46214747E-02   0.46214747E-02    0.0000000        0.0000000      -0.45862665E-02
  7082.0000       0.35514831E-03   0.52657404E-02   0.52657404E-02    0.0000000        0.0000000      -0.49105921E-02
  7087.0000       0.93273140E-03   0.61186190E-02   0.61186190E-02   0.75459492E-267   0.57615726E-233  -0.51858876E-02
  7092.0000       0.20484385E-02   0.73009109E-02   0.73009109E-02   0.36484173E-175   0.48892216E-148  -0.52524725E-02
  7097.0000       0.34462232E-02   0.90488542E-02   0.90488542E-02   0.88007189E-103   0.20699575E-82  -0.56026310E-02
  7102.0000       0.62673079E-02   0.11894916E-01   0.11894916E-01   0.10591436E-49   0.43722619E-36  -0.56276077E-02
  7102.2000       0.64930935E-02   0.12046390E-01   0.12046390E-01   0.55807321E-48   0.12365590E-34  -0.55532961E-02
  7102.4000       0.65597415E-02   0.12201763E-01   0.12201763E-01   0.27386993E-46   0.32571694E-33  -0.56420213E-02
  7102.6000       0.68237958E-02   0.12361187E-01   0.12361187E-01   0.12517407E-44   0.79906606E-32  -0.55373911E-02
  7102.8000       0.69524632E-02   0.12524822E-01   0.12524822E-01   0.53284542E-43   0.18257523E-30  -0.55723592E-02
  7103.0000       0.71267565E-02   0.12692838E-01   0.12692838E-01   0.21125399E-41   0.38852403E-29  -0.55660814E-02
  7103.2000       0.73452890E-02   0.12865411E-01   0.12865411E-01   0.78005542E-40   0.77003547E-28  -0.55201223E-02
  7103.4000       0.78589766E-02   0.13042730E-01   0.13042730E-01   0.26826426E-38   0.14214135E-26  -0.51837534E-02
  7103.6000       0.78285834E-02   0.13224992E-01   0.13224992E-01   0.85924503E-37   0.24436947E-25  -0.53964085E-02
  7103.8000       0.79839658E-02   0.13412406E-01   0.13412406E-01   0.25632329E-35   0.39128240E-24  -0.54284404E-02
  7104.0000       0.82355530E-02   0.13605194E-01   0.13605194E-01   0.71215733E-34   0.58351297E-23  -0.53696410E-02
  7104.2000       0.82538393E-02   0.13803589E-01   0.13803589E-01   0.18428104E-32   0.81045247E-22  -0.55497495E-02
  7104.4000       0.84599104E-02   0.14007838E-01   0.14007838E-01   0.44412192E-31   0.10483865E-20  -0.55479279E-02
  7104.6000       0.86581918E-02   0.14218205E-01   0.14218205E-01   0.99687476E-30   0.12630837E-19  -0.55600129E-02
  7104.8000       0.90661317E-02   0.14434966E-01   0.14434966E-01   0.20839909E-28   0.14172931E-18  -0.53688345E-02
  7105.0000       0.92146157E-02   0.14658418E-01   0.14658418E-01   0.40575874E-27   0.14811671E-17  -0.54438021E-02
  7105.2000       0.95274879E-02   0.14888873E-01   0.14888873E-01   0.73579492E-26   0.14416681E-16  -0.53613851E-02
  7105.4000       0.97757195E-02   0.15126665E-01   0.15126665E-01   0.12426892E-24   0.13069030E-15  -0.53509460E-02
  7105.6000       0.10117426E-01   0.15372150E-01   0.15372150E-01   0.19547224E-23   0.11034134E-14  -0.52547237E-02
  7105.8000       0.10414606E-01   0.15625704E-01   0.15625704E-01   0.28636801E-22   0.86766078E-14  -0.52110981E-02
  7106.0000       0.10637558E-01   0.15887731E-01   0.15887731E-01   0.39073359E-21   0.63544584E-13  -0.52501731E-02
  7106.2000       0.11040080E-01   0.16158661E-01   0.16158661E-01   0.49653953E-20   0.43343497E-12  -0.51185809E-02
  7106.4000       0.11321427E-01   0.16438954E-01   0.16438954E-01   0.58768384E-19   0.27535070E-11  -0.51175271E-02
  7106.6000       0.11608802E-01   0.16729102E-01   0.16729102E-01   0.64781427E-18   0.16291657E-10  -0.51203004E-02
  7106.8000       0.12055144E-01   0.17029631E-01   0.17029631E-01   0.66508033E-17   0.89776192E-10  -0.49744875E-02
  7107.0000       0.12450677E-01   0.17341107E-01   0.17341107E-01   0.63593764E-16   0.46075911E-09  -0.48904301E-02
  7107.2000       0.13053718E-01   0.17664137E-01   0.17664135E-01   0.56633291E-15   0.22024371E-08  -0.46104194E-02
  7107.4000       0.13331980E-01   0.17999377E-01   0.17999367E-01   0.46972741E-14   0.98050531E-08  -0.46673968E-02
  7107.6000       0.14017171E-01   0.18347546E-01   0.18347505E-01   0.36285812E-13   0.40654929E-07  -0.43303750E-02
  7107.8000       0.14323908E-01   0.18709462E-01   0.18709305E-01   0.26106258E-12   0.15699771E-06  -0.43855539E-02
  7108.0000       0.14984386E-01   0.19086146E-01   0.19085581E-01   0.17493199E-11   0.56466419E-06  -0.41017604E-02
  7108.2000       0.15438127E-01   0.19479109E-01   0.19477217E-01   0.10917185E-10   0.18914899E-05  -0.40409820E-02
  7108.4000       0.16102844E-01   0.19891067E-01   0.19885166E-01   0.63455457E-10   0.59011225E-05  -0.37882232E-02
  7108.6000       0.16904165E-01   0.20327610E-01   0.20310463E-01   0.34351373E-09   0.17146760E-04  -0.34234450E-02
  7108.8000       0.18178590E-01   0.20800636E-01   0.20754231E-01   0.17319528E-08   0.46403033E-04  -0.26220452E-02
  7109.0000       0.18793215E-01   0.21334657E-01   0.21217692E-01   0.81328893E-08   0.11695734E-03  -0.25414423E-02
  7109.2000       0.19757019E-01   0.21976765E-01   0.21702176E-01   0.35568905E-07   0.27455253E-03  -0.22197454E-02
  7109.4000       0.21219215E-01   0.22809544E-01   0.22209138E-01   0.14488151E-06   0.60026115E-03  -0.15903293E-02
  7109.6000       0.22884589E-01   0.23962999E-01   0.22740166E-01   0.54963234E-06   0.12222833E-02  -0.10784095E-02
  7109.8000       0.24672949E-01   0.25616979E-01   0.23297000E-01   0.19419964E-05   0.23180369E-02  -0.94403009E-03
  7110.0000       0.27240190E-01   0.27982300E-01   0.23881553E-01   0.63905966E-05   0.40943564E-02  -0.74211033E-03
  7110.2000       0.30986334E-01   0.31250982E-01   0.24495928E-01   0.19586247E-04   0.67354681E-02  -0.26464845E-03
  7110.4000       0.34350151E-01   0.35518045E-01   0.25142444E-01   0.55908506E-04   0.10319693E-01  -0.11678935E-02
  7110.6000       0.39652054E-01   0.40698225E-01   0.25823665E-01   0.14863510E-03   0.14725925E-01  -0.10461707E-02
  7110.8000       0.45323818E-01   0.46481561E-01   0.26542432E-01   0.36802872E-03   0.19571100E-01  -0.11577432E-02
  7111.0000       0.51167034E-01   0.52375664E-01   0.27301902E-01   0.84870913E-03   0.24225052E-01  -0.12086299E-02
  7111.2000       0.57193964E-01   0.57855884E-01   0.28105591E-01   0.18228582E-02   0.27927435E-01  -0.66191933E-03
  7111.4000       0.61737536E-01   0.62589521E-01   0.28957424E-01   0.36463951E-02   0.29985701E-01  -0.85198493E-03
  7111.6000       0.66173846E-01   0.66640970E-01   0.29861803E-01   0.67934659E-02   0.29985701E-01  -0.46712442E-03
  7111.8000       0.71579868E-01   0.70538991E-01   0.30823671E-01   0.11787886E-01   0.27927435E-01   0.10408769E-02
  7112.0000       0.76362994E-01   0.75123755E-01   0.31848603E-01   0.19050100E-01   0.24225052E-01   0.12392384E-02
  7112.2000       0.82414773E-01   0.81187157E-01   0.32942905E-01   0.28673153E-01   0.19571100E-01   0.12276155E-02
  7112.4000       0.91194727E-01   0.89034518E-01   0.34113737E-01   0.40194856E-01   0.14725925E-01   0.21602091E-02
  7112.6000       0.10020753       0.98167565E-01   0.35369260E-01   0.52478612E-01   0.10319693E-01   0.20399698E-02
  7112.8000       0.10884454       0.10726756       0.36718812E-01   0.63813275E-01   0.67354681E-02   0.15769898E-02
  7113.0000       0.11559594       0.11453723       0.38173120E-01   0.72269753E-01   0.40943564E-02   0.10587085E-02
  7113.2000       0.11872592       0.11829138       0.39744567E-01   0.76228776E-01   0.23180369E-02   0.43454217E-03
  7113.4000       0.11676102       0.11755536       0.41447508E-01   0.74885572E-01   0.12222833E-02  -0.79434627E-03
  7113.6000       0.11076101       0.11241528       0.43298670E-01   0.68516347E-01   0.60026115E-03  -0.16542650E-02
  7113.8000       0.10106310       0.10397797       0.45317640E-01   0.58385779E-01   0.27455253E-03  -0.29148708E-02
  7114.0000       0.91973844E-01   0.93982382E-01   0.47527476E-01   0.46337948E-01   0.11695734E-03  -0.20085381E-02
  7114.2000       0.81941896E-01   0.84253678E-01   0.49955478E-01   0.34251797E-01   0.46403033E-04  -0.23117822E-02
  7114.4000       0.76130689E-01   0.76231455E-01   0.52634148E-01   0.23580160E-01   0.17146760E-04  -0.10076590E-03
  7114.6000       0.72349001E-01   0.70727450E-01   0.55602412E-01   0.15119136E-01   0.59011225E-05   0.16215517E-02
  7114.8000       0.69863913E-01   0.67937735E-01   0.58907168E-01   0.90286756E-02   0.18914899E-05   0.19261776E-02
  7115.0000       0.69503876E-01   0.67627362E-01   0.62605246E-01   0.50215519E-02   0.56466419E-06   0.18765139E-02
  7115.2000       0.70784010E-01   0.69367222E-01   0.66765895E-01   0.26011697E-02   0.15699771E-06   0.14167876E-02
  7115.4000       0.74284971E-01   0.72728881E-01   0.71473920E-01   0.12549207E-02   0.40654929E-07   0.15560898E-02
  7115.6000       0.78747038E-01   0.77397438E-01   0.76833556E-01   0.56387220E-03   0.98050531E-08   0.13496005E-02
  7115.8000       0.83418388E-01   0.83209135E-01   0.82973160E-01   0.23597280E-03   0.22024371E-08   0.20925354E-03
  7116.0000       0.90949896E-01   0.90142518E-01   0.90050545E-01   0.91972931E-04   0.46075911E-09   0.80737771E-03
  7116.2000       0.99570205E-01   0.98291763E-01   0.98258376E-01   0.33386812E-04   0.89776192E-10   0.12784421E-02
  7116.4000       0.10902463       0.10783934       0.10782805       0.11287733E-04   0.16291657E-10   0.11852883E-02
  7116.6000       0.12017833       0.11903216       0.11902860       0.35543101E-05   0.27535070E-11   0.11461739E-02
  7116.8000       0.13365750       0.13215490       0.13215386       0.10423672E-05   0.43343497E-12   0.15025994E-02
  7117.0000       0.14798180       0.14748697       0.14748669       0.28471020E-06   0.63544584E-13   0.49483211E-03
  7117.2000       0.16379158       0.16522612       0.16522605       0.72427272E-07   0.86766078E-14  -0.14345414E-02
  7117.4000       0.18538641       0.18536999       0.18536997       0.17160031E-07   0.11034134E-14   0.16422985E-04
  7117.6000       0.20588507       0.20757866       0.20757866       0.37866124E-08   0.13069030E-15  -0.16935888E-02
  7117.8000       0.22832152       0.23109724       0.23109723       0.77821658E-09   0.14416681E-16  -0.27757113E-02
  7118.0000       0.25298009       0.25484212       0.25484212       0.14895906E-09   0.14811671E-17  -0.18620331E-02
  7118.2000       0.27537847       0.27766758       0.27766758       0.26555240E-10   0.14172931E-18  -0.22891075E-02
  7118.4000       0.29816962       0.29867049       0.29867049       0.44091041E-11   0.12630837E-19  -0.50086397E-03
  7118.6000       0.32351482       0.31735318       0.31735318       0.68181621E-12   0.10483865E-20   0.61616398E-02
  7118.8000       0.34436308       0.33359867       0.33359867       0.98197658E-13   0.81045247E-22   0.10764409E-01
  7119.0000       0.36456360       0.34754444       0.34754444       0.13172001E-13   0.58351297E-23   0.17019156E-01
  7119.2000       0.38430109       0.35945208       0.35945208       0.16455809E-14   0.39128240E-24   0.24849018E-01
  7119.4000       0.40437132       0.36961713       0.36961713       0.19147125E-15   0.24436947E-25   0.34754192E-01
  7119.6000       0.42353262       0.37832067       0.37832067       0.20749360E-16   0.14214135E-26   0.45211943E-01
  7119.8000       0.44204786       0.38580921       0.38580921       0.20942219E-17   0.77003547E-28   0.56238654E-01
  7120.0000       0.46208031       0.39229005       0.39229005       0.19686002E-18   0.38852403E-29   0.69790260E-01
  7120.2000       0.48011113       0.39793384       0.39793384       0.17234917E-19   0.18257523E-30   0.82177292E-01
  7120.4000       0.49724715       0.40287965       0.40287965       0.14053280E-20   0.79906606E-32   0.94367502E-01
  7120.6000       0.51698384       0.40724042       0.40724042       0.10672423E-21   0.32571694E-33   0.10974342
  7120.8000       0.53678392       0.41110795       0.41110795       0.75485788E-23   0.12365590E-34   0.12567597
  7121.0000       0.55678491       0.41455706       0.41455706       0.49726078E-24   0.43722619E-36   0.14222785
  7121.2000       0.57728819       0.41764907       0.41764907       0.30508443E-25   0.14398403E-37   0.15963912
  7121.4000       0.59750112       0.42043443       0.42043443       0.17433024E-26   0.44161045E-39   0.17706669
  7121.6000       0.61716076       0.42295495       0.42295495       0.92777412E-28   0.12614824E-40   0.19420581
  7121.8000       0.63768845       0.42524545       0.42524545       0.45986315E-29   0.33561384E-42   0.21244301
  7122.0000       0.66135441       0.42733509       0.42733509       0.21229111E-30   0.83160172E-44   0.23401932
  7122.2000       0.68122371       0.42924849       0.42924849       0.91274998E-32   0.19191448E-45   0.25197522
  7122.4000       0.70017982       0.43100647       0.43100647       0.36550111E-33   0.41249332E-47   0.26917335
  7122.6000       0.72538723       0.43262682       0.43262682       0.13631461E-34   0.82573929E-49   0.29276041
  7122.8000       0.74435767       0.43412474       0.43412474       0.47349233E-36   0.15395217E-50   0.31023292
  7123.0000       0.76465552       0.43551335       0.43551335       0.15317939E-37   0.26732865E-52   0.32914217
  7123.2000       0.78530694       0.43680396       0.43680396       0.46153489E-39   0.43233665E-54   0.34850297
  7123.4000       0.80629531       0.43800644       0.43800644       0.12951665E-40   0.65120155E-56   0.36828887
  7123.6000       0.82597711       0.43912936       0.43912936       0.33850374E-42   0.91353593E-58   0.38684776
  7123.8000       0.84616749       0.44018026       0.44018026       0.82398290E-44   0.11935832E-59   0.40598724
  7124.0000       0.86441436       0.44116575       0.44116575       0.18680554E-45   0.14524345E-61   0.42324861
  7124.2000       0.88200315       0.44209169       0.44209169       0.39443747E-47   0.16461041E-63   0.43991146
  7124.4000       0.90003029       0.44296324       0.44296324       0.77568144E-49   0.17375401E-65   0.45706706
  7124.6000       0.91459405       0.44378501       0.44378501       0.14207101E-50   0.17081627E-67   0.47080904
  7124.8000       0.93089213       0.44456110       0.44456110       0.24235076E-52   0.15640134E-69   0.48633104
  7125.0000       0.94649105       0.44529517       0.44529517       0.38503493E-54   0.13337319E-71   0.50119588
  7125.2000       0.96229641       0.44599052       0.44599052       0.56973475E-56   0.10592865E-73   0.51630589
  7125.4000       0.97672888       0.44665011       0.44665011       0.78516716E-58   0.78356528E-76   0.53007877
  7125.6000       0.98877187       0.44727659       0.44727659       0.10077861E-59   0.53982596E-78   0.54149528
  7125.8000        1.0015697       0.44787239       0.44787239       0.12047349E-61   0.34637711E-80   0.55369734
  7126.0000        1.0143853       0.44843968       0.44843968       0.13413169E-63   0.20699575E-82   0.56594559
  7126.2000        1.0262268       0.44898044       0.44898044       0.13908752E-65   0.11521009E-84   0.57724637
  7126.4000        1.0363288       0.44949649       0.44949649       0.13432652E-67   0.59722290E-87   0.58683226
  7126.6000        1.0491232       0.44998947       0.44998947       0.12082372E-69   0.28833623E-89   0.59913374
  7126.8000        1.0592348       0.45046087       0.45046087       0.10121841E-71   0.12965188E-91   0.60877394
  7127.0000        1.0670917       0.45091209       0.45091209       0.78973905E-74   0.54296927E-94   0.61617959
  7127.2000        1.0772212       0.45134437       0.45134437       0.57388459E-76   0.21178175E-96   0.62587680
  7127.4000        1.0866319       0.45175888       0.45175888       0.38840280E-78   0.76934057E-99   0.63487298
  7127.6000        1.0952335       0.45215670       0.45215670       0.24482568E-80   0.26029485E-101   0.64307683
  7127.8000        1.1028974       0.45253879       0.45253879       0.14373034E-82   0.82021813E-104   0.65035856
  7128.0000        1.1092180       0.45290607       0.45290607       0.78588091E-85   0.24071879E-106   0.65631189
  7128.2000        1.1151696       0.45325939       0.45325939       0.40020441E-87   0.65797205E-109   0.66191024
  7128.4000        1.1206822       0.45359951       0.45359951       0.18981208E-89   0.16750267E-111   0.66708267
  7128.6000        1.1263972       0.45392717       0.45392717       0.83846059E-92   0.39714845E-114   0.67247000
  7128.8000        1.1339141       0.45424302       0.45424302       0.34495171E-94   0.87700252E-117   0.67967112
  7129.0000        1.1357975       0.45454771       0.45454771       0.13217545E-96   0.18037056E-119   0.68124977
  7129.2000        1.1400335       0.45484179       0.45484179       0.47169373E-99   0.34549939E-122   0.68519174
  7129.4000        1.1414305       0.45512583       0.45512583       0.15677841E-101   0.61637606E-125   0.68630466
  7129.6000        1.1423149       0.45540031       0.45540031       0.48532119E-104   0.10241441E-127   0.68691459
  7129.8000        1.1476886       0.45566572       0.45566572       0.13992299E-106   0.15848685E-130   0.69202290
  7130.0000        1.1486229       0.45592250       0.45592250       0.37572124E-109   0.22842426E-133   0.69270044
  7130.2000        1.1487000       0.45617105       0.45617105       0.93963515E-112   0.30662534E-136   0.69252895
  7130.4000        1.1498609       0.45641176       0.45641176       0.21886161E-114   0.38334580E-139   0.69344918
  7130.6000        1.1507052       0.45664501       0.45664501       0.47478476E-117   0.44636508E-142   0.69406020
  7130.8000        1.1492565       0.45687112       0.45687112       0.95926983E-120   0.48406820E-145   0.69238542
  7131.0000        1.1487450       0.45709043       0.45709043       0.18051015E-122   0.48892216E-148   0.69165462
  7131.2000        1.1486775       0.45730323       0.45730323       0.31635837E-125   0.45992788E-151   0.69137422
  7131.4000        1.1491279       0.45750980       0.45750980       0.51638528E-128   0.40295503E-154   0.69161808
  7131.6000        1.1497640       0.45771043       0.45771043       0.78502812E-131   0.32880640E-157   0.69205353
  7131.8000        1.1470264       0.45790535       0.45790535       0.11115101E-133   0.24988534E-160   0.68912107
  7132.0000        1.1500711       0.45809481       0.45809481       0.14657451E-136   0.17687162E-163   0.69197628
  7132.2000        1.1445548       0.45827903       0.45827903       0.18001982E-139   0.11659833E-166   0.68627572
  7132.4000        1.1442087       0.45845824       0.45845824       0.20592024E-142   0.71588518E-170   0.68575042
  7132.6000        1.1426792       0.45863262       0.45863262       0.21937876E-145   0.40936550E-173   0.68404663
  7132.8000        1.1417900       0.45880237       0.45880237       0.21767420E-148   0.21801980E-176   0.68298763
  7133.0000        1.1427332       0.45896767       0.45896767       0.20115748E-151   0.10814277E-179   0.68376551
  7133.2000        1.1412247       0.45912870       0.45912870       0.17313395E-154   0.49959245E-183   0.68209597
  7133.4000        1.1407977       0.45928562       0.45928562       0.13878583E-157   0.21495675E-186   0.68151203
  7133.6000        1.1390324       0.45943858       0.45943858       0.10361553E-160   0.86139656E-190   0.67959385
  7133.8000        1.1397892       0.45958773       0.45958773       0.72047916E-164   0.32149337E-193   0.68020147
  7134.0000        1.1387290       0.45973321       0.45973321       0.46658936E-167   0.11175263E-196   0.67899580
  7134.2000        1.1395661       0.45987516       0.45987516       0.28142655E-170   0.36179313E-200   0.67969090
  7134.4000        1.1385377       0.46001370       0.46001370       0.15809282E-173   0.10908869E-203   0.67852403
  7134.6000        1.1370839       0.46014895       0.46014895       0.82713436E-177   0.30634864E-207   0.67693492
  7134.8000        1.1372514       0.46028103       0.46028103       0.40304804E-180   0.80125181E-211   0.67697035
  7135.0000        1.1369974       0.46041004       0.46041004       0.18291714E-183   0.19518163E-214   0.67658739
  7135.2000        1.1356158       0.46053610       0.46053610       0.77315902E-187   0.44281842E-218   0.67507965
  7135.4000        1.1372748       0.46065931       0.46065931       0.30436877E-190   0.93568414E-222   0.67661545
  7135.6000        1.1345201       0.46077975       0.46077975       0.11159589E-193   0.18414066E-225   0.67374031
  7135.8000        1.1337723       0.46089753       0.46089753       0.38107734E-197   0.33751023E-229   0.67287482
  7136.0000        1.1327702       0.46101272       0.46101272       0.12119784E-200   0.57615726E-233   0.67175745
  7136.2000        1.1321366       0.46112541       0.46112541       0.35899922E-204   0.91603480E-237   0.67101122
  7136.4000        1.1292951       0.46123569       0.46123569       0.99039617E-208   0.13564374E-240   0.66805944
  7136.6000        1.1269110       0.46134363       0.46134363       0.25447272E-211   0.18707009E-244   0.66556734
  7136.8000        1.1261201       0.46144930       0.46144930       0.60896223E-215   0.24028452E-248   0.66467078
  7137.0000        1.1244819       0.46155277       0.46155277       0.13572389E-218   0.28745116E-252   0.66292909
  7137.2000        1.1212342       0.46165412       0.46165412       0.28173390E-222   0.32027216E-256   0.65958012
  7137.4000        1.1207796       0.46175340       0.46175340       0.54467662E-226   0.33234652E-260   0.65902616
  7137.6000        1.1199582       0.46185068       0.46185068       0.98074297E-230   0.32120325E-264   0.65810750
  7137.8000        1.1140962       0.46194602       0.46194602       0.16447069E-233   0.28912494E-268   0.65215014
  7138.0000        1.1129807       0.46203947       0.46203947       0.25688494E-237   0.24238627E-272   0.65094127
  7138.2000        1.1107127       0.46213110       0.46213110       0.37368496E-241   0.18925498E-276   0.64858161
  7138.4000        1.1059068       0.46222095       0.46222095       0.50627845E-245   0.13762694E-280   0.64368583
  7138.6000        1.1052936       0.46230907       0.46230907       0.63883704E-249   0.93212987E-285   0.64298449
  7138.8000        1.1041460       0.46239552       0.46239552       0.75077115E-253   0.58798498E-289   0.64175052
  7139.0000        1.1029786       0.46248035       0.46248035       0.82175415E-257   0.34544021E-293   0.64049821
  7139.2000        1.0963315       0.46256358       0.46256358       0.83770878E-261   0.18901504E-297   0.63376792
  7139.4000        1.0965738       0.46264528       0.46264528       0.79535509E-265   0.96324483E-302   0.63392854
  7139.6000        1.0950604       0.46272549       0.46272549       0.70330855E-269   0.45718697E-306   0.63233492
  7139.8000        1.0935749       0.46280423       0.46280423       0.57922537E-273   0.20210071E-310   0.63077072
  7140.0000        1.0925502       0.46288156       0.46288156       0.44428953E-277   0.83206772E-315   0.62966862
  7140.2000        1.0874928       0.46295752       0.46295752       0.31739598E-281   0.31906759E-319   0.62453527
  7140.4000        1.0848015       0.46303212       0.46303212       0.21118040E-285    0.0000000       0.62176935
  7140.6000        1.0829747       0.46310543       0.46310543       0.13086474E-289    0.0000000       0.61986926
  7140.8000        1.0830709       0.46317746       0.46317746       0.75528087E-294    0.0000000       0.61989345
  7141.0000        1.0794332       0.46324824       0.46324824       0.40598611E-298    0.0000000       0.61618493
  7141.2000        1.0776101       0.46331782       0.46331782       0.20325007E-302    0.0000000       0.61429226
  7141.4000        1.0770956       0.46338623       0.46338623       0.94769170E-307    0.0000000       0.61370942
  7141.6000        1.0739976       0.46345348       0.46345348       0.41154780E-311    0.0000000       0.61054415
  7141.8000        1.0701992       0.46351961       0.46351961       0.16645250E-315    0.0000000       0.60667959
  7142.0000        1.0679365       0.46358466       0.46358466       0.62696930E-320    0.0000000       0.60435188
  7143.7330        1.0218888       0.46410628       0.46410628        0.0000000        0.0000000       0.55778252
  7145.5160        1.0201357       0.46457493       0.46457493        0.0000000        0.0000000       0.55556072
  7147.3470       0.99661436       0.46499737       0.46499737        0.0000000        0.0000000       0.53161699
  7149.2260       0.96967626       0.46537973       0.46537973        0.0000000        0.0000000       0.50429653
  7151.1540       0.94561237       0.46572729       0.46572729        0.0000000        0.0000000       0.47988508
  7153.1310       0.92257600       0.46604431       0.46604431        0.0000000        0.0000000       0.45653169
  7155.1570       0.90556160       0.46633438       0.46633438        0.0000000        0.0000000       0.43922722
  7157.2310       0.89571153       0.46660045       0.46660045        0.0000000        0.0000000       0.42911109
  7159.3540       0.89027088       0.46684530       0.46684530        0.0000000        0.0000000       0.42342558
  7161.5250       0.88846529       0.46707109       0.46707109        0.0000000        0.0000000       0.42139420
  7163.7460       0.89309664       0.46728000       0.46728000        0.0000000        0.0000000       0.42581664
  7166.0150       0.90148227       0.46747355       0.46747355        0.0000000        0.0000000       0.43400871
  7168.3330       0.91460006       0.46765333       0.46765333        0.0000000        0.0000000       0.44694673
  7170.6990       0.93291331       0.46782059       0.46782059        0.0000000        0.0000000       0.46509272
  7173.1140       0.94821278       0.46797654       0.46797654        0.0000000        0.0000000       0.48023624
  7175.5780       0.96326253       0.46812223       0.46812223        0.0000000        0.0000000       0.49514030
  7178.0900       0.97110755       0.46825849       0.46825849        0.0000000        0.0000000       0.50284906
  7180.6510       0.97607468       0.46838619       0.46838619        0.0000000        0.0000000       0.50768849
  7183.2610       0.98505508       0.46850605       0.46850605        0.0000000        0.0000000       0.51654902
  7185.9200       0.99358756       0.46861872       0.46861872        0.0000000        0.0000000       0.52496883
  7188.6270       0.99570121       0.46872473       0.46872473        0.0000000        0.0000000       0.52697648
  7191.3830        1.0034830       0.46882464       0.46882464        0.0000000        0.0000000       0.53465840
  7194.1880        1.0033463       0.46891893       0.46891893        0.0000000        0.0000000       0.53442736
  7197.0410        1.0022864       0.46900798       0.46900798        0.0000000        0.0000000       0.53327843
  7199.9420        1.0026748       0.46909218       0.46909218        0.0000000        0.0000000       0.53358258
  7202.8930        1.0005546       0.46917195       0.46917195        0.0000000        0.0000000       0.53138262
  7205.8930       0.99468717       0.46924755       0.46924755        0.0000000        0.0000000       0.52543961
  7208.9400       0.99116314       0.46931925       0.46931925        0.0000000        0.0000000       0.52184389
  7212.0370       0.98507507       0.46938737       0.46938737        0.0000000        0.0000000       0.51568770
  7215.1830       0.98096423       0.46945213       0.46945213        0.0000000        0.0000000       0.51151210
  7218.3760       0.97727741       0.46951372       0.46951372        0.0000000        0.0000000       0.50776369
  7221.6190       0.96989933       0.46957239       0.46957239        0.0000000        0.0000000       0.50032694
  7224.9110       0.97409718       0.46962831       0.46962831        0.0000000        0.0000000       0.50446887
  7228.2510       0.96796873       0.46968164       0.46968164        0.0000000        0.0000000       0.49828708
  7231.6400       0.96957372       0.46973256       0.46973256        0.0000000        0.0000000       0.49984116
  7235.0770       0.96459863       0.46978119       0.46978119        0.0000000        0.0000000       0.49481744
  7238.5630       0.96829396       0.46982768       0.46982768        0.0000000        0.0000000       0.49846627
  7242.0980       0.97090366       0.46987217       0.46987217        0.0000000        0.0000000       0.50103149
  7245.6820       0.97273010       0.46991476       0.46991476        0.0000000        0.0000000       0.50281534
  7249.3130       0.97299498       0.46995554       0.46995554        0.0000000        0.0000000       0.50303944
  7252.9950       0.97370884       0.46999465       0.46999465        0.0000000        0.0000000       0.50371419
  7256.7240       0.98154400       0.47003216       0.47003216        0.0000000        0.0000000       0.51151185
  7260.5020       0.98186805       0.47006815       0.47006815        0.0000000        0.0000000       0.51179990
  7264.3300       0.98747974       0.47010273       0.47010273        0.0000000        0.0000000       0.51737701
  7268.2050       0.99208488       0.47013594       0.47013594        0.0000000        0.0000000       0.52194894
  7272.1290       0.99197655       0.47016787       0.47016787        0.0000000        0.0000000       0.52180868
  7276.1030       0.98851504       0.47019859       0.47019859        0.0000000        0.0000000       0.51831645
  7280.1240       0.99497247       0.47022815       0.47022815        0.0000000        0.0000000       0.52474432
  7284.1940       0.99303440       0.47025661       0.47025661        0.0000000        0.0000000       0.52277779
  7288.3130       0.99483001       0.47028403       0.47028403        0.0000000        0.0000000       0.52454599
  7292.4810       0.99310044       0.47031046       0.47031046        0.0000000        0.0000000       0.52278999
  7296.6980       0.99454257       0.47033594       0.47033594        0.0000000        0.0000000       0.52420663
  7300.9630       0.99365955       0.47036053       0.47036053        0.0000000        0.0000000       0.52329903
  7305.2770       0.99317458       0.47038425       0.47038425        0.0000000        0.0000000       0.52279033
  7309.6390       0.98993342       0.47040716       0.47040716        0.0000000        0.0000000       0.51952626
  7314.0500       0.98847381       0.47042929       0.47042929        0.0000000        0.0000000       0.51804452
  7318.5100       0.98978072       0.47045067       0.47045067        0.0000000        0.0000000       0.51933005
  7323.0190       0.98815229       0.47047134       0.47047134        0.0000000        0.0000000       0.51768094
  7327.5760       0.98893209       0.47049134       0.47049134        0.0000000        0.0000000       0.51844076
  7332.1820       0.98743924       0.47051068       0.47051068        0.0000000        0.0000000       0.51692856
  7336.8360       0.98621632       0.47052940       0.47052940        0.0000000        0.0000000       0.51568692
  7341.5400       0.98906084       0.47054752       0.47054752        0.0000000        0.0000000       0.51851332
  7346.2920       0.98625027       0.47056508       0.47056508        0.0000000        0.0000000       0.51568520
  7351.0920       0.98983648       0.47058208       0.47058208        0.0000000        0.0000000       0.51925439
  7355.9420       0.98841842       0.47059857       0.47059857        0.0000000        0.0000000       0.51781985
  7360.8400       0.98775907       0.47061455       0.47061455        0.0000000        0.0000000       0.51714452
  7365.7870       0.98806256       0.47063005       0.47063005        0.0000000        0.0000000       0.51743251
  7370.7820       0.98543968       0.47064509       0.47064509        0.0000000        0.0000000       0.51479459
  7375.8260       0.98675775       0.47065968       0.47065968        0.0000000        0.0000000       0.51609807
  7380.9190       0.99086491       0.47067385       0.47067385        0.0000000        0.0000000       0.52019106
  7386.0600       0.98838475       0.47068760       0.47068760        0.0000000        0.0000000       0.51769715
  7391.2500       0.99012338       0.47070096       0.47070096        0.0000000        0.0000000       0.51942242
  7396.4890       0.99002611       0.47071394       0.47071394        0.0000000        0.0000000       0.51931217
  7401.7770       0.98893610       0.47072656       0.47072656        0.0000000        0.0000000       0.51820954
  7407.1130       0.99148128       0.47073883       0.47073883        0.0000000        0.0000000       0.52074245
  7412.4980       0.97734597       0.47075075       0.47075075        0.0000000        0.0000000       0.50659521
  7417.9320       0.98986403       0.47076236       0.47076236        0.0000000        0.0000000       0.51910167
  7423.4140       0.98315869       0.47077364       0.47077364        0.0000000        0.0000000       0.51238505
  7428.9450       0.98479474       0.47078463       0.47078463        0.0000000        0.0000000       0.51401012
  7434.5240       0.98967024       0.47079532       0.47079532        0.0000000        0.0000000       0.51887493
  7440.1530       0.99020322       0.47080573       0.47080573        0.0000000        0.0000000       0.51939749
  7445.8300       0.98684871       0.47081587       0.47081587        0.0000000        0.0000000       0.51603284
  7451.5550       0.98435388       0.47082574       0.47082574        0.0000000        0.0000000       0.51352814
  7457.3300       0.97637301       0.47083536       0.47083536        0.0000000        0.0000000       0.50553765
  7463.1530       0.98054707       0.47084474       0.47084474        0.0000000        0.0000000       0.50970233
  7469.0240       0.98125699       0.47085388       0.47085388        0.0000000        0.0000000       0.51040311
  7474.9450       0.98241645       0.47086279       0.47086279        0.0000000        0.0000000       0.51155365
  7480.9140       0.97715297       0.47087149       0.47087149        0.0000000        0.0000000       0.50628148
  7486.9320       0.98590530       0.47087996       0.47087996        0.0000000        0.0000000       0.51502534
  7492.9990       0.97783872       0.47088824       0.47088824        0.0000000        0.0000000       0.50695048
